# R	Wavelength(A)   p1_T                   
  3000            0.053247               
  3010            0.0425964              
  3020            0.0476694              
  3030            0.0428226              
  3040            0.029822500000000002   
  3050            0.033613300000000006   
  3060            0.027247900000000002   
  3070            0.0241669              
  3080            0.0345545              
  3090            0.044228199999999995   
  3100            0.0390724              
  3110            0.0270975              
  3120            0.0291335              
  3130            0.0394256              
  3140            0.0359321              
  3150            0.0199168              
  3160            0.013584               
  3170            0.029999400000000002   
  3180            0.0379303              
  3190            0.0331556              
  3200            0.0339339              
  3210            0.038357               
  3220            0.0282417              
  3230            0.0270327              
  3240            0.0337736              
  3250            0.0326523              
  3260            0.028966500000000003   
  3270            0.0293934              
  3280            0.0235274              
  3290            0.022364199999999997   
  3300            0.0175317              
  3310            0.0195763              
  3320            0.024213300000000004   
  3330            0.021894300000000002   
  3340            0.030239099999999998   
  3350            0.021107499999999998   
  3360            0.0144858              
  3370            0.0124698              
  3380            0.011861               
  3390            0.015624               
  3400            0.0135311              
  3410            0.0147009              
  3420            0.0138013              
  3430            0.011134699999999999   
  3440            0.010746               
  3450            0.0102253              
  3460            0.008748190000000001   
  3470            0.00852646             
  3480            0.0096776              
  3490            0.0107555              
  3500            0.009900830000000001   
  3510            0.00536895             
  3520            0.00693409             
  3530            0.00741579             
  3540            0.00550855             
  3550            0.00516246             
  3560            0.00703996             
  3570            0.00773014             
  3580            0.00665654             
  3590            0.00623363             
  3600            0.0058563800000000004  
  3610            0.0035717500000000003  
  3620            0.00521899             
  3630            0.00611672             
  3640            0.00577556             
  3650            0.00547641             
  3660            0.00620188             
  3670            0.00722683             
  3680            0.00675405             
  3690            0.00660126             
  3700            0.005574320000000001   
  3710            0.00482063             
  3720            0.006360350000000001   
  3730            0.005778360000000001   
  3740            0.00556563             
  3750            0.00546955             
  3760            0.00586971             
  3770            0.00670601             
  3780            0.006553980000000001   
  3790            0.005601620000000001   
  3800            0.00397293             
  3810            0.003866               
  3820            0.00531565             
  3830            0.00580601             
  3840            0.00391885             
  3850            0.00378415             
  3860            0.00421511             
  3870            0.00449138             
  3880            0.00476659             
  3890            0.00497779             
  3900            0.00417507             
  3910            0.00351288             
  3920            0.00324592             
  3930            0.00317121             
  3940            0.0030210799999999998  
  3950            0.00254993             
  3960            0.0036826100000000002  
  3970            0.00390121             
  3980            0.0030402800000000002  
  3990            0.0024928700000000003  
  4000            0.0024155              
  4010            0.00230317             
  4020            0.0025832100000000003  
  4030            0.00264202             
  4040            0.00231858             
  4050            0.0022753499999999998  
  4060            0.0025916              
  4070            0.0027959400000000002  
  4080            0.00255127             
  4090            0.00212682             
  4100            0.0018842000000000002  
  4110            0.00165099             
  4120            0.0022156899999999998  
  4130            0.0021649              
  4140            0.0019538900000000002  
  4150            0.0019799              
  4160            0.00161285             
  4170            0.00139647             
  4180            0.001568               
  4190            0.0015892400000000002  
  4200            0.00148337             
  4210            0.00154572             
  4220            0.00124985             
  4230            0.00115298             
  4240            0.00128326             
  4250            0.00152418             
  4260            0.00162053             
  4270            0.00134764             
  4280            0.00127517             
  4290            0.00152491             
  4300            0.00149926             
  4310            0.0012055              
  4320            0.00119375             
  4330            0.00107317             
  4340            0.00103256             
  4350            0.0010149500000000001  
  4360            0.00104217             
  4370            0.00109205             
  4380            9.8317E-4              
  4390            0.00120239             
  4400            0.0013883              
  4410            0.00123838             
  4420            9.245939999999999E-4   
  4430            9.410590000000001E-4   
  4440            0.00110899             
  4450            0.0011543100000000002  
  4460            0.00113316             
  4470            0.0011595400000000001  
  4480            0.00123948             
  4490            0.0012401              
  4500            0.00117288             
  4510            0.0010252              
  4520            8.57974E-4             
  4530            8.5669E-4              
  4540            0.00119495             
  4550            0.0011515              
  4560            0.00109331             
  4570            0.00115176             
  4580            0.00114452             
  4590            8.89075E-4             
  4600            9.49541E-4             
  4610            0.00102115             
  4620            0.00119736             
  4630            0.0013303300000000002  
  4640            0.00123743             
  4650            0.00130712             
  4660            0.0012449499999999999  
  4670            0.00119511             
  4680            0.00119393             
  4690            0.00116559             
  4700            0.00107931             
  4710            0.0012033              
  4720            0.00120589             
  4730            0.00105297             
  4740            9.89101E-4             
  4750            0.00119566             
  4760            0.00105593             
  4770            9.92801E-4             
  4780            0.0010377799999999999  
  4790            0.00105823             
  4800            9.79659E-4             
  4810            9.705940000000001E-4   
  4820            9.504390000000001E-4   
  4830            0.00105658             
  4840            0.0012794500000000001  
  4850            0.00139105             
  4860            0.00111589             
  4870            0.00105709             
  4880            0.00115604             
  4890            0.0011993              
  4900            0.00110187             
  4910            0.00103696             
  4920            0.00133121             
  4930            0.00122158             
  4940            0.00111988             
  4950            0.00120308             
  4960            0.00112378             
  4970            0.00110303             
  4980            0.00118556             
  4990            0.0012308              
  5000            0.00118031             
  5010            0.00112527             
  5020            0.0012170400000000002  
  5030            0.0012214300000000001  
  5040            0.00119278             
  5050            0.0011953              
  5060            0.00121925             
  5070            0.00119736             
  5080            0.00127702             
  5090            0.00118434             
  5100            0.0010796              
  5110            0.0011405200000000001  
  5120            0.00125657             
  5130            0.00125578             
  5140            0.00115106             
  5150            0.00117803             
  5160            0.00128384             
  5170            0.00121556             
  5180            0.00127598             
  5190            0.00128158             
  5200            0.0012265              
  5210            0.0012045500000000002  
  5220            0.00126052             
  5230            0.00123686             
  5240            0.0013558600000000002  
  5250            0.0013277              
  5260            0.00124898             
  5270            0.00131412             
  5280            0.00133352             
  5290            0.00120892             
  5300            0.00132448             
  5310            0.00146344             
  5320            0.0013825299999999999  
  5330            0.0013041600000000002  
  5340            0.0014083200000000002  
  5350            0.00149174             
  5360            0.0015486500000000002  
  5370            0.00156795             
  5380            0.00149162             
  5390            0.00153428             
  5400            0.00164383             
  5410            0.0017546              
  5420            0.00181857             
  5430            0.00184391             
  5440            0.00192678             
  5450            0.00202018             
  5460            0.00206577             
  5470            0.00213392             
  5480            0.00227634             
  5490            0.0022683              
  5500            0.00237264             
  5510            0.00264                
  5520            0.00284352             
  5530            0.00288374             
  5540            0.0031552999999999998  
  5550            0.00341451             
  5560            0.0035772              
  5570            0.0038211499999999997  
  5580            0.004284700000000001   
  5590            0.00483595             
  5600            0.00550962             
  5610            0.006371590000000001   
  5620            0.00757342             
  5630            0.00919697             
  5640            0.0112625              
  5650            0.0142225              
  5660            0.0183027              
  5670            0.023875000000000004   
  5680            0.031349               
  5690            0.041116099999999996   
  5700            0.0536255              
  5710            0.0692534              
  5720            0.0884095              
  5730            0.11170999999999999    
  5740            0.140123               
  5750            0.175038               
  5760            0.218149               
  5770            0.271544               
  5780            0.336774               
  5790            0.414084               
  5800            0.502041               
  5810            0.595631               
  5820            0.688424               
  5830            0.773181               
  5840            0.843431               
  5850            0.895171               
  5860            0.928957               
  5870            0.947748               
  5880            0.9559730000000001     
  5890            0.958327               
  5900            0.958629               
  5910            0.958759               
  5920            0.9599989999999999     
  5930            0.9628180000000001     
  5940            0.96692                
  5950            0.97151                
  5960            0.9762510000000001     
  5970            0.980472               
  5980            0.983621               
  5990            0.985438               
  6000            0.985957               
  6010            0.985086               
  6020            0.983125               
  6030            0.9803850000000001     
  6040            0.977245               
  6050            0.974202               
  6060            0.9718370000000001     
  6070            0.970365               
  6080            0.96988                
  6090            0.9704430000000001     
  6100            0.9720399999999999     
  6110            0.9741670000000001     
  6120            0.976983               
  6130            0.9800369999999999     
  6140            0.9828140000000001     
  6150            0.985093               
  6160            0.9866370000000001     
  6170            0.9872230000000001     
  6180            0.986835               
  6190            0.985518               
  6200            0.98335                
  6210            0.9807389999999999     
  6220            0.977862               
  6230            0.9749410000000001     
  6240            0.972367               
  6250            0.9705750000000001     
  6260            0.969549               
  6270            0.969221               
  6280            0.9696840000000001     
  6290            0.9709000000000001     
  6300            0.9726600000000001     
  6310            0.9749200000000001     
  6320            0.977479               
  6330            0.980004               
  6340            0.9823500000000001     
  6350            0.984512               
  6360            0.9860639999999999     
  6370            0.987201               
  6380            0.987728               
  6390            0.9876                 
  6400            0.987033               
  6410            0.9861570000000001     
  6420            0.985168               
  6430            0.9841639999999999     
  6440            0.9832170000000001     
  6450            0.982448               
  6460            0.9821200000000001     
  6470            0.98208                
  6480            0.9824630000000001     
  6490            0.983256               
  6500            0.984293               
  6510            0.985696               
  6520            0.987253               
  6530            0.9888370000000001     
  6540            0.9903360000000001     
  6550            0.9916429999999999     
  6560            0.9927                 
  6570            0.993351               
  6580            0.993608               
  6590            0.993515               
  6600            0.993093               
  6610            0.9923890000000001     
  6620            0.9914790000000001     
  6630            0.9903740000000001     
  6640            0.989185               
  6650            0.988128               
  6660            0.987408               
  6670            0.986719               
  6680            0.986287               
  6690            0.986225               
  6700            0.9863700000000001     
  6710            0.9865970000000001     
  6720            0.987161               
  6730            0.987881               
  6740            0.988513               
  6750            0.9889749999999999     
  6760            0.9894499999999999     
  6770            0.989502               
  6780            0.9893160000000001     
  6790            0.988947               
  6800            0.988155               
  6810            0.987088               
  6820            0.985876               
  6830            0.984504               
  6840            0.9829430000000001     
  6850            0.981298               
  6860            0.9800310000000001     
  6870            0.9788120000000001     
  6880            0.977847               
  6890            0.977311               
  6900            0.9771080000000001     
  6910            0.977464               
  6920            0.9780570000000001     
  6930            0.978987               
  6940            0.9803040000000001     
  6950            0.9817640000000001     
  6960            0.9832850000000001     
  6970            0.98502                
  6980            0.9867239999999999     
  6990            0.988225               
  7000            0.9896720000000001     
  7010            0.990793               
  7020            0.9916849999999999     
  7030            0.992316               
  7040            0.992642               
  7050            0.992738               
  7060            0.992593               
  7070            0.9923350000000001     
  7080            0.9919950000000001     
  7090            0.99155                
  7100            0.991019               
  7110            0.9907720000000001     
  7120            0.990563               
  7130            0.990379               
  7140            0.990325               
  7150            0.9903350000000001     
  7160            0.990415               
  7170            0.9905849999999999     
  7180            0.990874               
  7190            0.991215               
  7200            0.991337               
  7210            0.991451               
  7220            0.9916079999999999     
  7230            0.991648               
  7240            0.991271               
  7250            0.9902110000000001     
  7260            0.9877830000000001     
  7270            0.9832810000000001     
  7280            0.975419               
  7290            0.962474               
  7300            0.9429770000000001     
  7310            0.9145310000000001     
  7320            0.875736               
  7330            0.8258270000000001     
  7340            0.764907               
  7350            0.6947110000000001     
  7360            0.618123               
  7370            0.5390550000000001     
  7380            0.46142299999999997    
  7390            0.38846400000000003    
  7400            0.322832               
  7410            0.265632               
  7420            0.217184               
  7430            0.17708100000000002    
  7440            0.144383               
  7450            0.117997               
  7460            0.096686               
  7470            0.0796549              
  7480            0.0661682              
  7490            0.0552516              
  7500            0.0464624              
  7510            0.039315               
  7520            0.0334534              
  7530            0.0286701              
  7540            0.024861               
  7550            0.0215833              
  7560            0.0188107              
  7570            0.016530800000000002   
  7580            0.014641900000000001   
  7590            0.0129428              
  7600            0.011677               
  7610            0.0105453              
  7620            0.00945351             
  7630            0.008531790000000001   
  7640            0.00767064             
  7650            0.0070934399999999995  
  7660            0.00650206             
  7670            0.0058498000000000005  
  7680            0.005428039999999999   
  7690            0.00510834             
  7700            0.00480677             
  7710            0.00443365             
  7720            0.00403812             
  7730            0.00380507             
  7740            0.0036884400000000003  
  7750            0.00356302             
  7760            0.00338432             
  7770            0.00316528             
  7780            0.00294854             
  7790            0.00295099             
  7800            0.00286551             
  7810            0.0027164100000000003  
  7820            0.00263374             
  7830            0.00244523             
  7840            0.00247079             
  7850            0.00251697             
  7860            0.00242538             
  7870            0.00224132             
  7880            0.00225594             
  7890            0.00228009             
  7900            0.00234295             
  7910            0.00236667             
  7920            0.00221749             
  7930            0.0021861              
  7940            0.00200339             
  7950            0.00201776             
  7960            0.0021956600000000003  
  7970            0.00191431             
  7980            0.00178144             
  7990            0.0017574200000000002  
  8000            0.00183959             
  8010            0.00195778             
  8020            0.0019141800000000001  
  8030            0.00198686             
  8040            0.0019014300000000002  
  8050            0.00185165             
  8060            0.00205096             
  8070            0.0019425              
  8080            0.00194084             
  8090            0.00179323             
  8100            0.00169367             
  8110            0.0019752800000000003  
  8120            0.00166372             
  8130            0.00168183             
  8140            0.00168569             
  8150            0.00154612             
  8160            0.00170739             
  8170            0.00181758             
  8180            0.0017357800000000001  
  8190            0.00176646             
  8200            0.00193735             
  8210            0.0016587              
  8220            0.00169115             
  8230            0.00172795             
  8240            0.00158065             
  8250            0.0014247099999999998  
  8260            0.0018230499999999999  
  8270            0.00189122             
  8280            0.0017582900000000002  
  8290            0.0016333500000000002  
  8300            0.0015781200000000001  
  8310            0.00158464             
  8320            0.00167842             
  8330            0.00165811             
  8340            0.0015265500000000002  
  8350            0.0015456              
  8360            0.0015672700000000002  
  8370            0.00152028             
  8380            0.00147613             
  8390            0.0014957899999999999  
  8400            0.00150863             
  8410            0.0015076100000000002  
  8420            0.0016522000000000002  
  8430            0.00170653             
  8440            0.0014417              
  8450            0.001352               
  8460            0.00142424             
  8470            0.00149813             
  8480            0.00147314             
  8490            0.00138769             
  8500            0.00137495             
  8510            0.00155855             
  8520            0.00152415             
  8530            0.001113               
  8540            8.345220000000001E-4   
  8550            0.0013433400000000002  
  8560            0.00149913             
  8570            0.00129063             
  8580            0.0012097              
  8590            0.0011244              
  8600            9.18929E-4             
  8610            0.00100324             
  8620            0.00127435             
  8630            0.00125247             
  8640            9.58307E-4             
  8650            8.479100000000001E-4   
  8660            9.85629E-4             
  8670            0.00114192             
  8680            0.0010393              
  8690            0.00124702             
  8700            0.00109756             
  8710            0.00105733             
  8720            0.00145667             
  8730            0.0012467000000000001  
  8740            0.0014196              
  8750            0.00126555             
  8760            0.0010309100000000001  
  8770            0.00139021             
  8780            0.0012027300000000002  
  8790            9.10411E-4             
  8800            0.00105069             
  8810            0.00139708             
  8820            0.00104056             
  8830            6.36637E-4             
  8840            8.45802E-4             
  8850            0.0011350000000000002  
  8860            0.00102943             
  8870            0.00127198             
  8880            0.00122186             
  8890            0.00123115             
  8900            0.00128496             
  8910            0.00118028             
  8920            0.0015658500000000001  
  8930            0.00129163             
  8940            0.0011883100000000001  
  8950            0.001456               
  8960            0.0010848              
  8970            0.0013932              
  8980            0.00142649             
  8990            0.0011256900000000002  
  9000            9.33785E-4             
  9010            0.00106694             
  9020            9.73878E-4             
  9030            0.00114713             
  9040            0.0014003099999999999  
  9050            0.0011239300000000002  
  9060            8.43353E-4             
  9070            9.69463E-4             
  9080            0.00115828             
  9090            0.00115226             
  9100            0.00116216             
  9110            9.172850000000001E-4   
  9120            8.716740000000001E-4   
  9130            0.00111172             
  9140            0.00134097             
  9150            0.00106298             
  9160            0.0013611799999999998  
  9170            0.0013686599999999998  
  9180            0.00107292             
  9190            0.0013864399999999999  
  9200            0.0016061500000000002  
  9210            0.00119687             
  9220            0.0010856300000000002  
  9230            0.00165634             
  9240            0.0015302199999999999  
  9250            0.0012515299999999998  
  9260            0.00102235             
  9270            9.89147E-4             
  9280            0.00117906             
  9290            0.0013853399999999999  
  9300            0.00121174             
  9310            8.97327E-4             
  9320            9.83369E-4             
  9330            0.00173119             
  9340            0.0010138              
  9350            8.58255E-4             
  9360            0.00142996             
  9370            0.00189579             
  9380            0.00203065             
  9390            0.00193598             
  9400            0.0019139500000000002  
  9410            0.00200869             
  9420            0.00210181             
  9430            0.00276176             
  9440            0.00263931             
  9450            0.00193914             
  9460            0.00149311             
  9470            0.0017897              
  9480            0.00129747             
  9490            0.0012343999999999999  
  9500            0.00209084             
  9510            0.0030640000000000003  
  9520            0.00206742             
  9530            7.03355E-4             
  9540            9.08157E-4             
  9550            0.00223376             
  9560            0.0016635900000000002  
  9570            0.0014945              
  9580            0.00179505             
  9590            0.00235831             
  9600            0.00273295             
  9610            0.0020438500000000003  
  9620            0.00120422             
  9630            9.42132E-4             
  9640            0.00126779             
  9650            0.00150144             
  9660            0.0012867999999999998  
  9670            0.00128556             
  9680            0.0018239600000000001  
  9690            0.00239554             
  9700            0.0014429100000000002  
  9710            9.11963E-4             
  9720            0.00123423             
  9730            0.00203388             
  9740            0.00249796             
  9750            0.00183142             
  9760            0.00152386             
  9770            0.0016207700000000001  
  9780            0.00154812             
  9790            0.00101463             
  9800            0.0016398299999999999  
  9810            0.00157104             
  9820            0.00115313             
  9830            0.00199623             
  9840            0.00153333             
  9850            0.00154258             
  9860            0.00165605             
  9870            0.0014094300000000001  
  9880            0.00143622             
  9890            0.00118457             
  9900            0.0012800900000000002  
  9910            0.0013086900000000002  
  9920            7.566960000000001E-4   
  9930            0.00196451             
  9940            0.00220551             
  9950            0.00198522             
  9960            0.00192055             
  9970            0.00129846             
  9980            0.0011701300000000001  
  9990            0.00138836             
  10000           0.00187967             
